Zeit;Kanal A
(ms);(V)

0,00000000;0,51962350
0,00250400;0,51962350
0,00500800;0,51962350
0,00751200;0,51962350
0,01001600;0,51962350
0,01252000;0,51962350
0,01502400;0,51962350
0,01752800;0,51962350
0,02003200;0,51962350
0,02253600;0,51962350
0,02504000;0,51962350
0,02754400;0,51962350
0,03004800;0,51962350
0,03255200;0,51962350
0,03505600;0,53813980
0,03756000;0,51962350
0,04006400;0,51962350
0,04256800;0,51962350
0,04507200;0,51962350
0,04757600;0,51962350
0,05008000;0,51962350
0,05258400;0,51962350
0,05508800;0,51962350
0,05759200;0,51962350
0,06009600;0,51962350
0,06260000;0,51962350
0,06510400;0,51962350
0,06760800;0,51962350
0,07011200;0,51962350
0,07261600;0,51962350
0,07512000;0,51962350
0,07762400;0,51962350
0,08012800;0,51962350
0,08263200;0,53813980
0,08513600;0,51962350
0,08764000;0,51962350
0,09014400;0,53813980
0,09264800;0,51962350
0,09515200;0,51962350
0,09765600;0,51962350
0,10016000;0,53813980
0,10266400;0,53813980
0,10516800;0,53813980
0,10767200;0,53813980
0,11017600;0,51962350
0,11268000;0,51962350
0,11518400;0,51962350
0,11768800;0,51962350
0,12019199;0,51962350
0,12269599;0,51962350
0,12519999;0,51962350
0,12770399;0,51962350
0,13020799;0,51962350
0,13271199;0,51962350
0,13521599;0,51962350
0,13771999;0,51962350
0,14022399;0,53813980
0,14272799;0,51962350
0,14523199;0,53813980
0,14773599;0,53813980
0,15023999;0,53813980
0,15274399;0,51962350
0,15524799;0,53813980
0,15775199;0,51962350
0,16025599;0,53813980
0,16275999;0,51962350
0,16526399;0,53813980
0,16776799;0,53813980
0,17027199;0,53813980
0,17277599;0,53813980
0,17527999;0,53813980
0,17778399;0,53813980
0,18028799;0,53813980
0,18279199;0,53813980
0,18529599;0,53813980
0,18779999;0,53813980
0,19030399;0,53813980
0,19280799;0,53813980
0,19531199;0,53813980
0,19781599;0,53813980
0,20031999;0,53813980
0,20282399;0,53813980
0,20532799;0,53813980
0,20783199;0,53813980
0,21033599;0,53813980
0,21283999;0,53813980
0,21534399;0,53813980
0,21784799;0,53813980
0,22035199;0,53813980
0,22285599;0,53813980
0,22535999;0,53813980
0,22786399;0,53813980
0,23036799;0,53813980
0,23287199;0,53813980
0,23537599;0,53813980
0,23787999;0,53813980
0,24038399;0,53813980
0,24288799;0,53813980
0,24539199;0,53813980
0,24789599;0,53813980
0,25039999;0,53813980
0,25290399;0,53813980
0,25540799;0,53813980
0,25791199;0,53813980
0,26041599;0,53813980
0,26291999;0,53813980
0,26542399;0,53813980
0,26792799;0,53813980
0,27043199;0,51962350
0,27293599;0,53813980
0,27543999;0,51962350
0,27794399;0,51962350
0,28044799;0,53813980
0,28295199;0,51962350
0,28545599;0,53813980
0,28795999;0,53813980
0,29046399;0,51962350
0,29296799;0,51962350
0,29547199;0,51962350
0,29797599;0,51962350
0,30047999;0,51962350
0,30298399;0,51962350
0,30548799;0,51962350
0,30799199;0,51962350
0,31049599;0,51962350
0,31299999;0,51962350
0,31550399;0,51962350
0,31800799;0,53813980
0,32051199;0,51962350
0,32301599;0,51962350
0,32551999;0,51962350
0,32802399;0,51962350
0,33052799;0,51962350
0,33303199;0,51962350
0,33553599;0,51962350
0,33803999;0,51962350
0,34054399;0,53813980
0,34304799;0,51962350
0,34555199;0,53813980
0,34805599;0,51962350
0,35055999;0,51962350
0,35306399;0,53813980
0,35556799;0,51962350
0,35807198;0,51962350
0,36057598;0,53813980
0,36307998;0,51962350
0,36558398;0,51962350
0,36808798;0,51962350
0,37059198;0,51962350
0,37309598;0,51962350
0,37559998;0,51962350
0,37810398;0,51962350
0,38060798;0,51962350
0,38311198;0,51962350
0,38561598;0,51962350
0,38811998;0,53813980
0,39062398;0,51962350
0,39312798;0,51962350
0,39563198;0,51962350
0,39813598;0,51962350
0,40063998;0,51962350
0,40314398;0,51962350
0,40564798;0,51962350
0,40815198;0,51962350
0,41065598;0,51962350
0,41315998;0,51962350
0,41566398;0,51962350
0,41816798;0,51962350
0,42067198;0,51962350
0,42317598;0,51962350
0,42567998;0,51962350
0,42818398;0,51962350
0,43068798;0,50104580
0,43319198;0,50104580
0,43569598;0,51962350
0,43819998;0,51962350
0,44070398;0,51962350
0,44320798;0,51962350
0,44571198;0,53813980
0,44821598;0,51962350
0,45071998;0,51962350
0,45322398;0,51962350
0,45572798;0,53813980
0,45823198;0,51962350
0,46073598;0,51962350
0,46323998;0,51962350
0,46574398;0,51962350
0,46824798;0,51962350
0,47075198;0,53813980
0,47325598;0,51962350
0,47575998;0,51962350
0,47826398;0,51962350
0,48076798;0,51962350
0,48327198;0,51962350
0,48577598;0,51962350
0,48827998;0,51962350
0,49078398;0,51962350
0,49328798;0,51962350
0,49579198;0,51962350
0,49829598;0,51962350
0,50079998;0,51962350
0,50330398;0,51962350
0,50580798;0,51962350
0,50831198;0,51962350
0,51081598;0,53813980
0,51331998;0,51962350
0,51582398;0,51962350
0,51832798;0,51962350
0,52083198;0,51962350
0,52333598;0,51962350
0,52583998;0,51962350
0,52834398;0,51962350
0,53084798;0,51962350
0,53335198;0,51962350
0,53585598;0,51962350
0,53835998;0,53813980
0,54086398;0,51962350
0,54336798;0,51962350
0,54587198;0,51962350
0,54837598;0,53813980
0,55087998;0,51962350
0,55338398;0,51962350
0,55588798;0,51962350
0,55839198;0,51962350
0,56089598;0,51962350
0,56339998;0,51962350
0,56590398;0,51962350
0,56840798;0,51962350
0,57091198;0,51962350
0,57341598;0,51962350
0,57591998;0,51962350
0,57842398;0,51962350
0,58092798;0,51962350
0,58343198;0,51962350
0,58593598;0,51962350
0,58843998;0,51962350
0,59094398;0,51962350
0,59344798;0,51962350
0,59595197;0,51962350
0,59845597;0,51962350
0,60095997;0,51962350
0,60346397;0,51962350
0,60596797;0,51962350
0,60847197;0,51962350
0,61097597;0,51962350
0,61347997;0,51962350
0,61598397;0,51962350
0,61848797;0,53813980
0,62099197;0,51962350
0,62349597;0,51962350
0,62599997;0,51962350
0,62850397;0,51962350
0,63100797;0,51962350
0,63351197;0,51962350
0,63601597;0,51962350
0,63851997;0,51962350
0,64102397;0,51962350
0,64352797;0,51962350
0,64603197;0,51962350
0,64853597;0,51962350
0,65103997;0,51962350
0,65354397;0,51962350
0,65604797;0,51962350
0,65855197;0,51962350
0,66105597;0,51962350
0,66355997;0,51962350
0,66606397;0,51962350
0,66856797;0,51962350
0,67107197;0,51962350
0,67357597;0,51962350
0,67607997;0,51962350
0,67858397;0,51962350
0,68108797;0,51962350
0,68359197;0,51962350
0,68609597;0,51962350
0,68859997;0,51962350
0,69110397;0,51962350
0,69360797;0,51962350
0,69611197;0,53813980
0,69861597;0,51962350
0,70111997;0,51962350
0,70362397;0,51962350
0,70612797;0,51962350
0,70863197;0,51962350
0,71113597;0,51962350
0,71363997;0,51962350
0,71614397;0,51962350
0,71864797;0,51962350
0,72115197;0,51962350
0,72365597;0,51962350
0,72615997;0,51962350
0,72866397;0,51962350
0,73116797;0,51962350
0,73367197;0,53813980
0,73617597;0,51962350
0,73867997;0,51962350
0,74118397;0,51962350
0,74368797;0,51962350
0,74619197;0,51962350
0,74869597;0,51962350
0,75119997;0,51962350
0,75370397;0,51962350
0,75620797;0,51962350
0,75871197;0,51962350
0,76121597;0,51962350
0,76371997;0,51962350
0,76622397;0,51962350
0,76872797;0,51962350
0,77123197;0,51962350
0,77373597;0,53813980
0,77623997;0,51962350
0,77874397;0,51962350
0,78124797;0,51962350
0,78375197;0,51962350
0,78625597;0,51962350
0,78875997;0,51962350
0,79126397;0,51962350
0,79376797;0,51962350
0,79627197;0,51962350
0,79877597;0,51962350
0,80127997;0,53813980
0,80378397;0,50104580
0,80628797;0,51962350
0,80879197;0,51962350
0,81129597;0,53813980
0,81379997;0,53813980
0,81630397;0,51962350
0,81880797;0,51962350
0,82131197;0,51962350
0,82381597;0,51962350
0,82631997;0,53813980
0,82882397;0,51962350
0,83132796;0,51962350
0,83383196;0,51962350
0,83633596;0,51962350
0,83883996;0,51962350
0,84134396;0,51962350
0,84384796;0,51962350
0,84635196;0,51962350
0,84885596;0,51962350
0,85135996;0,51962350
0,85386396;0,51962350
0,85636796;0,51962350
0,85887196;0,51962350
0,86137596;0,51962350
0,86387996;0,51962350
0,86638396;0,53813980
0,86888796;0,51962350
0,87139196;0,51962350
0,87389596;0,51962350
0,87639996;0,51962350
0,87890396;0,53813980
0,88140796;0,53813980
0,88391196;0,51962350
0,88641596;0,53813980
0,88891996;0,51962350
0,89142396;0,51962350
0,89392796;0,53813980
0,89643196;0,51962350
0,89893596;0,51962350
0,90143996;0,51962350
0,90394396;0,51962350
0,90644796;0,51962350
0,90895196;0,51962350
0,91145596;0,51962350
0,91395996;0,51962350
0,91646396;0,51962350
0,91896796;0,53813980
0,92147196;0,51962350
0,92397596;0,51962350
0,92647996;0,51962350
0,92898396;0,51962350
0,93148796;0,51962350
0,93399196;0,51962350
0,93649596;0,51962350
0,93899996;0,51962350
0,94150396;0,51962350
0,94400796;0,51962350
0,94651196;0,51962350
0,94901596;0,51962350
0,95151996;0,51962350
0,95402396;0,51962350
0,95652796;0,51962350
0,95903196;0,53813980
0,96153596;0,51962350
0,96403996;0,51962350
0,96654396;0,51962350
0,96904796;0,51962350
0,97155196;0,51962350
0,97405596;0,53813980
0,97655996;0,51962350
0,97906396;0,53813980
0,98156796;0,51962350
0,98407196;0,51962350
0,98657596;0,53813980
0,98907996;0,51962350
0,99158396;0,51962350
0,99408796;0,51962350
0,99659196;0,53813980
0,99909596;0,51962350
1,00159996;0,51962350
1,00410396;0,51962350
1,00660796;0,51962350
1,00911196;0,51962350
1,01161596;0,51962350
1,01411996;0,51962350
1,01662396;0,51962350
1,01912796;0,51962350
1,02163196;0,51962350
1,02413596;0,51962350
1,02663996;0,51962350
1,02914396;0,51962350
1,03164796;0,51962350
1,03415196;0,51962350
1,03665596;0,53813980
1,03915996;0,51962350
1,04166396;0,51962350
1,04416796;0,51962350
1,04667196;0,51962350
1,04917596;0,51962350
1,05167996;0,53813980
1,05418396;0,53813980
1,05668796;0,51962350
1,05919196;0,51962350
1,06169596;0,51962350
1,06419996;0,51962350
1,06670396;0,50104580
1,06920795;0,53813980
1,07171195;0,53813980
1,07421595;0,51962350
1,07671995;0,51962350
1,07922395;0,53813980
1,08172795;0,51962350
1,08423195;0,51962350
1,08673595;0,51962350
1,08923995;0,53813980
1,09174395;0,53813980
1,09424795;0,51962350
1,09675195;0,51962350
1,09925595;0,51962350
1,10175995;0,51962350
1,10426395;0,51962350
1,10676795;0,51962350
1,10927195;0,51962350
1,11177595;0,51962350
1,11427995;0,51962350
1,11678395;0,51962350
1,11928795;0,53813980
1,12179195;0,53813980
1,12429595;0,53813980
1,12679995;0,51962350
1,12930395;0,53813980
1,13180795;0,53813980
1,13431195;0,53813980
1,13681595;0,53813980
1,13931995;0,53813980
1,14182395;0,51962350
1,14432795;0,53813980
1,14683195;0,53813980
1,14933595;0,53813980
1,15183995;0,53813980
1,15434395;0,53813980
1,15684795;0,53813980
1,15935195;0,51962350
1,16185595;0,53813980
1,16435995;0,51962350
1,16686395;0,53813980
1,16936795;0,53813980
1,17187195;0,53813980
1,17437595;0,53813980
1,17687995;0,53813980
1,17938395;0,51962350
1,18188795;0,55671750
1,18439195;0,51962350
1,18689595;0,53813980
1,18939995;0,53813980
1,19190395;0,51962350
1,19440795;0,51962350
1,19691195;0,53813980
1,19941595;0,53813980
1,20191995;0,53813980
1,20442395;0,53813980
1,20692795;0,51962350
1,20943195;0,53813980
1,21193595;0,53813980
1,21443995;0,53813980
1,21694395;0,53813980
1,21944795;0,53813980
1,22195195;0,53813980
1,22445595;0,53813980
1,22695995;0,53813980
1,22946395;0,53813980
1,23196795;0,53813980
1,23447195;0,53813980
1,23697595;0,53813980
1,23947995;0,51962350
1,24198395;0,53813980
1,24448795;0,51962350
1,24699195;0,51962350
1,24949595;0,53813980
1,25199995;0,53813980
1,25450395;0,51962350
1,25700795;0,53813980
1,25951195;0,51962350
1,26201595;0,51962350
1,26451995;0,51962350
1,26702395;0,51962350
1,26952795;0,51962350
1,27203195;0,51962350
1,27453595;0,53813980
1,27703995;0,53813980
1,27954395;0,53813980
1,28204795;0,53813980
1,28455195;0,51962350
1,28705595;0,51962350
1,28955995;0,51962350
1,29206395;0,53813980
1,29456795;0,51962350
1,29707195;0,51962350
1,29957595;0,51962350
1,30207995;0,53813980
1,30458395;0,51962350
1,30708794;0,51962350
1,30959194;0,51962350
1,31209594;0,51962350
1,31459994;0,53813980
1,31710394;0,51962350
1,31960794;0,51962350
1,32211194;0,51962350
1,32461594;0,51962350
1,32711994;0,51962350
1,32962394;0,53813980
1,33212794;0,53813980
1,33463194;0,53813980
1,33713594;0,51962350
1,33963994;0,51962350
1,34214394;0,53813980
1,34464794;0,53813980
1,34715194;0,53813980
1,34965594;0,51962350
1,35215994;0,51962350
1,35466394;0,53813980
1,35716794;0,53813980
1,35967194;0,51962350
1,36217594;0,51962350
1,36467994;0,51962350
1,36718394;0,51962350
1,36968794;0,51962350
1,37219194;0,51962350
1,37469594;0,51962350
1,37719994;0,51962350
1,37970394;0,51962350
1,38220794;0,51962350
1,38471194;0,51962350
1,38721594;0,51962350
1,38971994;0,53813980
1,39222394;0,51962350
1,39472794;0,51962350
1,39723194;0,51962350
1,39973594;0,51962350
1,40223994;0,51962350
1,40474394;0,51962350
1,40724794;0,53813980
1,40975194;0,51962350
1,41225594;0,51962350
1,41475994;0,51962350
1,41726394;0,51962350
1,41976794;0,50104580
1,42227194;0,50104580
1,42477594;0,51962350
1,42727994;0,53813980
1,42978394;0,51962350
1,43228794;0,51962350
1,43479194;0,53813980
1,43729594;0,51962350
1,43979994;0,51962350
1,44230394;0,51962350
1,44480794;0,53813980
1,44731194;0,51962350
1,44981594;0,51962350
1,45231994;0,51962350
1,45482394;0,51962350
1,45732794;0,51962350
1,45983194;0,51962350
1,46233594;0,51962350
1,46483994;0,51962350
1,46734394;0,51962350
1,46984794;0,51962350
1,47235194;0,51962350
1,47485594;0,51962350
1,47735994;0,51962350
1,47986394;0,51962350
1,48236794;0,51962350
1,48487194;0,51962350
1,48737594;0,51962350
1,48987994;0,51962350
1,49238394;0,51962350
1,49488794;0,51962350
1,49739194;0,51962350
1,49989594;0,51962350
1,50239994;0,51962350
1,50490394;0,51962350
1,50740794;0,51962350
1,50991194;0,51962350
1,51241594;0,51962350
1,51491994;0,51962350
1,51742394;0,51962350
1,51992794;0,51962350
1,52243194;0,51962350
1,52493594;0,51962350
1,52743994;0,53813980
1,52994394;0,51962350
1,53244794;0,51962350
1,53495194;0,51962350
1,53745594;0,53813980
1,53995994;0,51962350
1,54246394;0,51962350
1,54496793;0,51962350
1,54747193;0,51962350
1,54997593;0,51962350
1,55247993;0,51962350
1,55498393;0,53813980
1,55748793;0,51962350
1,55999193;0,51962350
1,56249593;0,51962350
1,56499993;0,51962350
1,56750393;0,51962350
1,57000793;0,51962350
1,57251193;0,51962350
1,57501593;0,51962350
1,57751993;0,51962350
1,58002393;0,51962350
1,58252793;0,51962350
1,58503193;0,51962350
1,58753593;0,51962350
1,59003993;0,51962350
1,59254393;0,53813980
1,59504793;0,51962350
1,59755193;0,51962350
1,60005593;0,51962350
1,60255993;0,51962350
1,60506393;0,51962350
1,60756793;0,53813980
1,61007193;0,51962350
1,61257593;0,53813980
1,61507993;0,50104580
1,61758393;0,51962350
1,62008793;0,51962350
1,62259193;0,51962350
1,62509593;0,51962350
1,62759993;0,51962350
1,63010393;0,53813980
1,63260793;0,51962350
1,63511193;0,51962350
1,63761593;0,51962350
1,64011993;0,51962350
1,64262393;0,51962350
1,64512793;0,51962350
1,64763193;0,53813980
1,65013593;0,51962350
1,65263993;0,51962350
1,65514393;0,53813980
1,65764793;0,51962350
1,66015193;0,51962350
1,66265593;0,51962350
1,66515993;0,51962350
1,66766393;0,51962350
1,67016793;0,53813980
1,67267193;0,51962350
1,67517593;0,51962350
1,67767993;0,53813980
1,68018393;0,51962350
1,68268793;0,51962350
1,68519193;0,53813980
1,68769593;0,51962350
1,69019993;0,51962350
1,69270393;0,51962350
1,69520793;0,51962350
1,69771193;0,53813980
1,70021593;0,51962350
1,70271993;0,51962350
1,70522393;0,53813980
1,70772793;0,53813980
1,71023193;0,51962350
1,71273593;0,51962350
1,71523993;0,51962350
1,71774393;0,51962350
1,72024793;0,51962350
1,72275193;0,53813980
1,72525593;0,51962350
1,72775993;0,51962350
1,73026393;0,51962350
1,73276793;0,51962350
1,73527193;0,51962350
1,73777593;0,51962350
1,74027993;0,51962350
1,74278393;0,51962350
1,74528793;0,51962350
1,74779193;0,51962350
1,75029593;0,51962350
1,75279993;0,51962350
1,75530393;0,51962350
1,75780793;0,51962350
1,76031193;0,51962350
1,76281593;0,53813980
1,76531993;0,51962350
1,76782393;0,51962350
1,77032793;0,51962350
1,77283193;0,51962350
1,77533593;0,51962350
1,77783993;0,51962350
1,78034393;0,51962350
1,78284792;0,53813980
1,78535192;0,51962350
1,78785592;0,51962350
1,79035992;0,51962350
1,79286392;0,51962350
1,79536792;0,51962350
1,79787192;0,51962350
1,80037592;0,53813980
1,80287992;0,51962350
1,80538392;0,51962350
1,80788792;0,51962350
1,81039192;0,51962350
1,81289592;0,51962350
1,81539992;0,51962350
1,81790392;0,51962350
1,82040792;0,51962350
1,82291192;0,51962350
1,82541592;0,51962350
1,82791992;0,51962350
1,83042392;0,51962350
1,83292792;0,51962350
1,83543192;0,51962350
1,83793592;0,51962350
1,84043992;0,51962350
1,84294392;0,51962350
1,84544792;0,51962350
1,84795192;0,51962350
1,85045592;0,51962350
1,85295992;0,51962350
1,85546392;0,53813980
1,85796792;0,51962350
1,86047192;0,51962350
1,86297592;0,51962350
1,86547992;0,51962350
1,86798392;0,51962350
1,87048792;0,53813980
1,87299192;0,51962350
1,87549592;0,53813980
1,87799992;0,51962350
1,88050392;0,51962350
1,88300792;0,51962350
1,88551192;0,51962350
1,88801592;0,51962350
1,89051992;0,51962350
1,89302392;0,51962350
1,89552792;0,51962350
1,89803192;0,51962350
1,90053592;0,51962350
1,90303992;0,51962350
1,90554392;0,51962350
1,90804792;0,51962350
1,91055192;0,51962350
1,91305592;0,51962350
1,91555992;0,51962350
1,91806392;0,51962350
1,92056792;0,51962350
1,92307192;0,51962350
1,92557592;0,51962350
1,92807992;0,51962350
1,93058392;0,51962350
1,93308792;0,51962350
1,93559192;0,51962350
1,93809592;0,53813980
1,94059992;0,51962350
1,94310392;0,51962350
1,94560792;0,51962350
1,94811192;0,53813980
1,95061592;0,51962350
1,95311992;0,51962350
1,95562392;0,51962350
1,95812792;0,51962350
1,96063192;0,51962350
1,96313592;0,53813980
1,96563992;0,51962350
1,96814392;0,53813980
1,97064792;0,51962350
1,97315192;0,51962350
1,97565592;0,51962350
1,97815992;0,51962350
1,98066392;0,51962350
1,98316792;0,51962350
1,98567192;0,53813980
1,98817592;0,51962350
1,99067992;0,51962350
1,99318392;0,51962350
1,99568792;0,51962350
1,99819192;0,51962350
2,00069592;0,51962350
2,00319992;0,51962350
2,00570392;0,51962350
2,00820792;0,51962350
2,01071192;0,51962350
2,01321592;0,51962350
2,01571992;0,51962350
2,01822392;0,51962350
2,02072791;0,51962350
2,02323191;0,51962350
2,02573591;0,51962350
2,02823991;0,51962350
2,03074391;0,51962350
2,03324791;0,51962350
2,03575191;0,51962350
2,03825591;0,51962350
2,04075991;0,53813980
2,04326391;0,51962350
2,04576791;0,51962350
2,04827191;0,51962350
2,05077591;0,51962350
2,05327991;0,51962350
2,05578391;0,51962350
2,05828791;0,51962350
2,06079191;0,53813980
2,06329591;0,53813980
2,06579991;0,51962350
2,06830391;0,53813980
2,07080791;0,51962350
2,07331191;0,51962350
2,07581591;0,51962350
2,07831991;0,53813980
2,08082391;0,51962350
2,08332791;0,51962350
2,08583191;0,51962350
2,08833591;0,51962350
2,09083991;0,51962350
2,09334391;0,53813980
2,09584791;0,51962350
2,09835191;0,53813980
2,10085591;0,53813980
2,10335991;0,53813980
2,10586391;0,53813980
2,10836791;0,53813980
2,11087191;0,53813980
2,11337591;0,53813980
2,11587991;0,51962350
2,11838391;0,53813980
2,12088791;0,53813980
2,12339191;0,53813980
2,12589591;0,53813980
2,12839991;0,53813980
2,13090391;0,51962350
2,13340791;0,53813980
2,13591191;0,53813980
2,13841591;0,53813980
2,14091991;0,53813980
2,14342391;0,53813980
2,14592791;0,53813980
2,14843191;0,53813980
2,15093591;0,53813980
2,15343991;0,51962350
2,15594391;0,53813980
2,15844791;0,53813980
2,16095191;0,53813980
2,16345591;0,53813980
2,16595991;0,53813980
2,16846391;0,53813980
2,17096791;0,55671750
2,17347191;0,53813980
2,17597591;0,53813980
2,17847991;0,53813980
2,18098391;0,53813980
2,18348791;0,53813980
2,18599191;0,53813980
2,18849591;0,53813980
2,19099991;0,53813980
2,19350391;0,51962350
2,19600791;0,53813980
2,19851191;0,53813980
2,20101591;0,53813980
2,20351991;0,53813980
2,20602391;0,53813980
2,20852791;0,61238930
2,21103191;0,53813980
2,21353591;0,51962350
2,21603991;0,53813980
2,21854391;0,51962350
2,22104791;0,51962350
2,22355191;0,51962350
2,22605591;0,55671750
2,22855991;0,51962350
2,23106391;0,53813980
2,23356791;0,51962350
2,23607191;0,51962350
2,23857591;0,51962350
2,24107991;0,51962350
2,24358391;0,51962350
2,24608791;0,51962350
2,24859191;0,51962350
2,25109591;0,51962350
2,25359991;0,51962350
2,25610390;0,51962350
2,25860790;0,51962350
2,26111190;0,51962350
2,26361590;0,51962350
2,26611990;0,53813980
2,26862390;0,51962350
2,27112790;0,51962350
2,27363190;0,51962350
2,27613590;0,51962350
2,27863990;0,53813980
2,28114390;0,51962350
2,28364790;0,51962350
2,28615190;0,51962350
2,28865590;0,51962350
2,29115990;0,51962350
2,29366390;0,53813980
2,29616790;0,51962350
2,29867190;0,51962350
2,30117590;0,51962350
2,30367990;0,53813980
2,30618390;0,51962350
2,30868790;0,51962350
2,31119190;0,51962350
2,31369590;0,51962350
2,31619990;0,51962350
2,31870390;0,53813980
2,32120790;0,51962350
2,32371190;0,53813980
2,32621590;0,51962350
2,32871990;0,51962350
2,33122390;0,53813980
2,33372790;0,51962350
2,33623190;0,51962350
2,33873590;0,51962350
2,34123990;0,53813980
2,34374390;0,51962350
2,34624790;0,51962350
2,34875190;0,51962350
2,35125590;0,51962350
2,35375990;0,51962350
2,35626390;0,51962350
2,35876790;0,51962350
2,36127190;0,51962350
2,36377590;0,51962350
2,36627990;0,51962350
2,36878390;0,51962350
2,37128790;0,51962350
2,37379190;0,51962350
2,37629590;0,51962350
2,37879990;0,55671750
2,38130390;0,53813980
2,38380790;0,51962350
2,38631190;0,51962350
2,38881590;0,51962350
2,39131990;0,51962350
2,39382390;0,50104580
2,39632790;0,53813980
2,39883190;0,51962350
2,40133590;0,53813980
2,40383990;0,51962350
2,40634390;0,53813980
2,40884790;0,51962350
2,41135190;0,50104580
2,41385590;0,51962350
2,41635990;0,53813980
2,41886390;0,53813980
2,42136790;0,51962350
2,42387190;0,51962350
2,42637590;0,51962350
2,42887990;0,53813980
2,43138390;0,51962350
2,43388790;0,53813980
2,43639190;0,51962350
2,43889590;0,51962350
2,44139990;0,51962350
2,44390390;0,51962350
2,44640790;0,51962350
2,44891190;0,53813980
2,45141590;0,51962350
2,45391990;0,51962350
2,45642390;0,51962350
2,45892790;0,51962350
2,46143190;0,51962350
2,46393590;0,51962350
2,46643990;0,51962350
2,46894390;0,51962350
2,47144790;0,51962350
2,47395190;0,53813980
2,47645590;0,51962350
2,47895990;0,51962350
2,48146390;0,51962350
2,48396790;0,51962350
2,48647190;0,51962350
2,48897590;0,51962350
2,49147990;0,51962350
2,49398389;0,55671750
2,49648789;0,51962350
2,49899189;0,51962350
2,50149589;0,51962350
2,50399989;0,51962350
2,50650389;0,51962350
2,50900789;0,51962350
2,51151189;0,51962350
2,51401589;0,51962350
2,51651989;0,53813980
2,51902389;0,51962350
2,52152789;0,51962350
2,52403189;0,51962350
2,52653589;0,53813980
2,52903989;0,51962350
2,53154389;0,51962350
2,53404789;0,53813980
2,53655189;0,51962350
2,53905589;0,51962350
2,54155989;0,51962350
2,54406389;0,51962350
2,54656789;0,51962350
2,54907189;0,51962350
2,55157589;0,51962350
2,55407989;0,53813980
2,55658389;0,53813980
2,55908789;0,51962350
2,56159189;0,51962350
2,56409589;0,51962350
2,56659989;0,51962350
2,56910389;0,51962350
2,57160789;0,51962350
2,57411189;0,53813980
2,57661589;0,51962350
2,57911989;0,51962350
2,58162389;0,53813980
2,58412789;0,51962350
2,58663189;0,53813980
2,58913589;0,51962350
2,59163989;0,51962350
2,59414389;0,51962350
2,59664789;0,51962350
2,59915189;0,51962350
2,60165589;0,51962350
2,60415989;0,51962350
2,60666389;0,51962350
2,60916789;0,51962350
2,61167189;0,53813980
2,61417589;0,51962350
2,61667989;0,51962350
2,61918389;0,53813980
2,62168789;0,51962350
2,62419189;0,51962350
2,62669589;0,51962350
2,62919989;0,51962350
2,63170389;0,51962350
2,63420789;0,51962350
2,63671189;0,51962350
2,63921589;0,51962350
2,64171989;0,51962350
2,64422389;0,51962350
2,64672789;0,51962350
2,64923189;0,51962350
2,65173589;0,51962350
2,65423989;0,51962350
2,65674389;0,51962350
2,65924789;0,53813980
2,66175189;0,51962350
2,66425589;0,51962350
2,66675989;0,51962350
2,66926389;0,51962350
2,67176789;0,51962350
2,67427189;0,53813980
2,67677589;0,53813980
2,67927989;0,53813980
2,68178389;0,51962350
2,68428789;0,51962350
2,68679189;0,53813980
2,68929589;0,51962350
2,69179989;0,51962350
2,69430389;0,51962350
2,69680789;0,53813980
2,69931189;0,53813980
2,70181589;0,51962350
2,70431989;0,53813980
2,70682389;0,51962350
2,70932789;0,51962350
2,71183189;0,51962350
2,71433589;0,51962350
2,71683989;0,51962350
2,71934389;0,51962350
2,72184789;0,51962350
2,72435189;0,51962350
2,72685589;0,51962350
2,72935989;0,51962350
2,73186388;0,51962350
2,73436788;0,51962350
2,73687188;0,51962350
2,73937588;0,51962350
2,74187988;0,51962350
2,74438388;0,51962350
2,74688788;0,51962350
2,74939188;0,51962350
2,75189588;0,53813980
2,75439988;0,51962350
2,75690388;0,51962350
2,75940788;0,51962350
2,76191188;0,51962350
2,76441588;0,50104580
2,76691988;0,50104580
2,76942388;0,51962350
2,77192788;0,53813980
2,77443188;0,51962350
2,77693588;0,51962350
2,77943988;0,51962350
2,78194388;0,51962350
2,78444788;0,51962350
2,78695188;0,51962350
2,78945588;0,53813980
2,79195988;0,51962350
2,79446388;0,51962350
2,79696788;0,51962350
2,79947188;0,51962350
2,80197588;0,51962350
2,80447988;0,51962350
2,80698388;0,51962350
2,80948788;0,51962350
2,81199188;0,51962350
2,81449588;0,51962350
2,81699988;0,51962350
2,81950388;0,51962350
2,82200788;0,51962350
2,82451188;0,51962350
2,82701588;0,53813980
2,82951988;0,51962350
2,83202388;0,51962350
2,83452788;0,51962350
2,83703188;0,51962350
2,83953588;0,51962350
2,84203988;0,51962350
2,84454388;0,53813980
2,84704788;0,51962350
2,84955188;0,53813980
2,85205588;0,51962350
2,85455988;0,51962350
2,85706388;0,51962350
2,85956788;0,53813980
2,86207188;0,51962350
2,86457588;0,51962350
2,86707988;0,51962350
2,86958388;0,51962350
2,87208788;0,53813980
2,87459188;0,51962350
2,87709588;0,51962350
2,87959988;0,51962350
2,88210388;0,53813980
2,88460788;0,51962350
2,88711188;0,51962350
2,88961588;0,51962350
2,89211988;0,51962350
2,89462388;0,51962350
2,89712788;0,51962350
2,89963188;0,51962350
2,90213588;0,51962350
2,90463988;0,51962350
2,90714388;0,51962350
2,90964788;0,51962350
2,91215188;0,51962350
2,91465588;0,51962350
2,91715988;0,51962350
2,91966388;0,51962350
2,92216788;0,51962350
2,92467188;0,51962350
2,92717588;0,51962350
2,92967988;0,51962350
2,93218388;0,51962350
2,93468788;0,51962350
2,93719188;0,53813980
2,93969588;0,51962350
2,94219988;0,51962350
2,94470388;0,51962350
2,94720788;0,51962350
2,94971188;0,51962350
2,95221588;0,53813980
2,95471988;0,51962350
2,95722388;0,53813980
2,95972788;0,50104580
2,96223188;0,51962350
2,96473588;0,51962350
2,96723988;0,51962350
2,96974387;0,51962350
2,97224787;0,51962350
2,97475187;0,55671750
2,97725587;0,51962350
2,97975987;0,51962350
2,98226387;0,51962350
2,98476787;0,51962350
2,98727187;0,51962350
2,98977587;0,51962350
2,99227987;0,51962350
2,99478387;0,51962350
2,99728787;0,51962350
2,99979187;0,51962350
3,00229587;0,51962350
3,00479987;0,51962350
3,00730387;0,51962350
3,00980787;0,51962350
3,01231187;0,51962350
3,01481587;0,53813980
3,01731987;0,51962350
3,01982387;0,51962350
3,02232787;0,51962350
3,02483187;0,51962350
3,02733587;0,51962350
3,02983987;0,53813980
3,03234387;0,51962350
3,03484787;0,51962350
3,03735187;0,51962350
3,03985587;0,51962350
3,04235987;0,53813980
3,04486387;0,51962350
3,04736787;0,51962350
3,04987187;0,51962350
3,05237587;0,53813980
3,05487987;0,53813980
3,05738387;0,51962350
3,05988787;0,51962350
3,06239187;0,53813980
3,06489587;0,51962350
3,06739987;0,53813980
3,06990387;0,51962350
3,07240787;0,51962350
3,07491187;0,53813980
3,07741587;0,53813980
3,07991987;0,51962350
3,08242387;0,53813980
3,08492787;0,51962350
3,08743187;0,53813980
3,08993587;0,53813980
3,09243987;0,53813980
3,09494387;0,53813980
3,09744787;0,53813980
3,09995187;0,51962350
3,10245587;0,53813980
3,10495987;0,51962350
3,10746387;0,53813980
3,10996787;0,53813980
3,11247187;0,53813980
3,11497587;0,53813980
3,11747987;0,53813980
3,11998387;0,51962350
3,12248787;0,51962350
3,12499187;0,53813980
3,12749587;0,53813980
3,12999987;0,53813980
3,13250387;0,53813980
3,13500787;0,53813980
3,13751187;0,53813980
3,14001587;0,53813980
3,14251987;0,51962350
3,14502387;0,53813980
3,14752787;0,53813980
3,15003187;0,53813980
3,15253587;0,53813980
3,15503987;0,51962350
3,15754387;0,53813980
3,16004787;0,53813980
3,16255187;0,53813980
3,16505587;0,53813980
3,16755987;0,53813980
3,17006387;0,53813980
3,17256787;0,53813980
3,17507187;0,53813980
3,17757587;0,53813980
3,18007987;0,53813980
3,18258387;0,48246800
3,18508787;0,53813980
3,18759187;0,53813980
3,19009587;0,51962350
3,19259987;0,51962350
3,19510387;0,51962350
3,19760787;0,53813980
3,20011187;0,53813980
3,20261587;0,51962350
3,20511987;0,53813980
3,20762386;0,51962350
3,21012786;0,51962350
3,21263186;0,51962350
3,21513586;0,53813980
3,21763986;0,51962350
3,22014386;0,53813980
3,22264786;0,51962350
3,22515186;0,51962350
3,22765586;0,51962350
3,23015986;0,51962350
3,23266386;0,51962350
3,23516786;0,51962350
3,23767186;0,51962350
3,24017586;0,53813980
3,24267986;0,51962350
3,24518386;0,51962350
3,24768786;0,51962350
3,25019186;0,51962350
3,25269586;0,51962350
3,25519986;0,51962350
3,25770386;0,51962350
3,26020786;0,51962350
3,26271186;0,51962350
3,26521586;0,51962350
3,26771986;0,51962350
3,27022386;0,51962350
3,27272786;0,51962350
3,27523186;0,51962350
3,27773586;0,51962350
3,28023986;0,51962350
3,28274386;0,51962350
3,28524786;0,51962350
3,28775186;0,51962350
3,29025586;0,51962350
3,29275986;0,53813980
3,29526386;0,51962350
3,29776786;0,51962350
3,30027186;0,51962350
3,30277586;0,51962350
3,30527986;0,50104580
3,30778386;0,53813980
3,31028786;0,51962350
3,31279186;0,53813980
3,31529586;0,51962350
3,31779986;0,51962350
3,32030386;0,51962350
3,32280786;0,51962350
3,32531186;0,51962350
3,32781586;0,51962350
3,33031986;0,53813980
3,33282386;0,51962350
3,33532786;0,51962350
3,33783186;0,51962350
3,34033586;0,51962350
3,34283986;0,51962350
3,34534386;0,51962350
3,34784786;0,51962350
3,35035186;0,51962350
3,35285586;0,51962350
3,35535986;0,51962350
3,35786386;0,51962350
3,36036786;0,51962350
3,36287186;0,51962350
3,36537586;0,51962350
3,36787986;0,51962350
3,37038386;0,51962350
3,37288786;0,51962350
3,37539186;0,51962350
3,37789586;0,51962350
3,38039986;0,51962350
3,38290386;0,51962350
3,38540786;0,53813980
3,38791186;0,51962350
3,39041586;0,51962350
3,39291986;0,51962350
3,39542386;0,51962350
3,39792786;0,51962350
3,40043186;0,51962350
3,40293586;0,51962350
3,40543986;0,51962350
3,40794386;0,53813980
3,41044786;0,51962350
3,41295186;0,51962350
3,41545586;0,51962350
3,41795986;0,51962350
3,42046386;0,51962350
3,42296786;0,53813980
3,42547186;0,51962350
3,42797586;0,51962350
3,43047986;0,51962350
3,43298386;0,51962350
3,43548786;0,51962350
3,43799186;0,51962350
3,44049586;0,51962350
3,44299985;0,51962350
3,44550385;0,51962350
3,44800785;0,51962350
3,45051185;0,51962350
3,45301585;0,51962350
3,45551985;0,51962350
3,45802385;0,51962350
3,46052785;0,51962350
3,46303185;0,51962350
3,46553585;0,51962350
3,46803985;0,51962350
3,47054385;0,51962350
3,47304785;0,51962350
3,47555185;0,51962350
3,47805585;0,51962350
3,48055985;0,51962350
3,48306385;0,51962350
3,48556785;0,51962350
3,48807185;0,51962350
3,49057585;0,51962350
3,49307985;0,51962350
3,49558385;0,51962350
3,49808785;0,51962350
3,50059185;0,51962350
3,50309585;0,51962350
3,50559985;0,51962350
3,50810385;0,51962350
3,51060785;0,51962350
3,51311185;0,51962350
3,51561585;0,51962350
3,51811985;0,51962350
3,52062385;0,51962350
3,52312785;0,51962350
3,52563185;0,51962350
3,52813585;0,51962350
3,53063985;0,51962350
3,53314385;0,51962350
3,53564785;0,51962350
3,53815185;0,51962350
3,54065585;0,51962350
3,54315985;0,51962350
3,54566385;0,51962350
3,54816785;0,51962350
3,55067185;0,51962350
3,55317585;0,51962350
3,55567985;0,51962350
3,55818385;0,51962350
3,56068785;0,51962350
3,56319185;0,51962350
3,56569585;0,51962350
3,56819985;0,51962350
3,57070385;0,53813980
3,57320785;0,51962350
3,57571185;0,53813980
3,57821585;0,51962350
3,58071985;0,51962350
3,58322385;0,51962350
3,58572785;0,51962350
3,58823185;0,51962350
3,59073585;0,51962350
3,59323985;0,50104580
3,59574385;0,51962350
3,59824785;0,51962350
3,60075185;0,51962350
3,60325585;0,51962350
3,60575985;0,51962350
3,60826385;0,51962350
3,61076785;0,51962350
3,61327185;0,51962350
3,61577585;0,51962350
3,61827985;0,51962350
3,62078385;0,51962350
3,62328785;0,51962350
3,62579185;0,51962350
3,62829585;0,51962350
3,63079985;0,51962350
3,63330385;0,51962350
3,63580785;0,51962350
3,63831185;0,51962350
3,64081585;0,51962350
3,64331985;0,51962350
3,64582385;0,51962350
3,64832785;0,53813980
3,65083185;0,51962350
3,65333585;0,51962350
3,65583985;0,51962350
3,65834385;0,51962350
3,66084785;0,51962350
3,66335185;0,53813980
3,66585585;0,51962350
3,66835985;0,53813980
3,67086385;0,51962350
3,67336785;0,51962350
3,67587185;0,51962350
3,67837585;0,51962350
3,68087984;0,51962350
3,68338384;0,51962350
3,68588784;0,53813980
3,68839184;0,51962350
3,69089584;0,51962350
3,69339984;0,51962350
3,69590384;0,51962350
3,69840784;0,51962350
3,70091184;0,51962350
3,70341584;0,51962350
3,70591984;0,51962350
3,70842384;0,51962350
3,71092784;0,51962350
3,71343184;0,51962350
3,71593584;0,51962350
3,71843984;0,51962350
3,72094384;0,51962350
3,72344784;0,51962350
3,72595184;0,51962350
3,72845584;0,51962350
3,73095984;0,51962350
3,73346384;0,51962350
3,73596784;0,51962350
3,73847184;0,51962350
3,74097584;0,53813980
3,74347984;0,51962350
3,74598384;0,51962350
3,74848784;0,51962350
3,75099184;0,51962350
3,75349584;0,51962350
3,75599984;0,50104580
3,75850384;0,51962350
3,76100784;0,53813980
3,76351184;0,53813980
3,76601584;0,51962350
3,76851984;0,51962350
3,77102384;0,51962350
3,77352784;0,53813980
3,77603184;0,51962350
3,77853584;0,53813980
3,78103984;0,51962350
3,78354384;0,51962350
3,78604784;0,51962350
3,78855184;0,51962350
3,79105584;0,51962350
3,79355984;0,51962350
3,79606384;0,51962350
3,79856784;0,51962350
3,80107184;0,51962350
3,80357584;0,51962350
3,80607984;0,51962350
3,80858384;0,51962350
3,81108784;0,51962350
3,81359184;0,51962350
3,81609584;0,51962350
3,81859984;0,53813980
3,82110384;0,51962350
3,82360784;0,51962350
3,82611184;0,51962350
3,82861584;0,51962350
3,83111984;0,51962350
3,83362384;0,53813980
3,83612784;0,51962350
3,83863184;0,53813980
3,84113584;0,53813980
3,84363984;0,51962350
3,84614384;0,51962350
3,84864784;0,51962350
3,85115184;0,51962350
3,85365584;0,51962350
3,85615984;0,51962350
3,85866384;0,51962350
3,86116784;0,51962350
3,86367184;0,51962350
3,86617584;0,51962350
3,86867984;0,51962350
3,87118384;0,53813980
3,87368784;0,51962350
3,87619184;0,51962350
3,87869584;0,51962350
3,88119984;0,51962350
3,88370384;0,51962350
3,88620784;0,51962350
3,88871184;0,51962350
3,89121584;0,51962350
3,89371984;0,51962350
3,89622384;0,51962350
3,89872784;0,51962350
3,90123184;0,51962350
3,90373584;0,51962350
3,90623984;0,51962350
3,90874384;0,53813980
3,91124784;0,53813980
3,91375184;0,51962350
3,91625584;0,51962350
3,91875983;0,51962350
3,92126383;0,51962350
3,92376783;0,51962350
3,92627183;0,53813980
3,92877583;0,51962350
3,93127983;0,51962350
3,93378383;0,51962350
3,93628783;0,51962350
3,93879183;0,50104580
3,94129583;0,51962350
3,94379983;0,51962350
3,94630383;0,51962350
3,94880783;0,50104580
3,95131183;0,51962350
3,95381583;0,51962350
3,95631983;0,53813980
3,95882383;0,53813980
3,96132783;0,51962350
3,96383183;0,53813980
3,96633583;0,51962350
3,96883983;0,51962350
3,97134383;0,51962350
3,97384783;0,51962350
3,97635183;0,51962350
3,97885583;0,51962350
3,98135983;0,51962350
3,98386383;0,51962350
3,98636783;0,51962350
3,98887183;0,51962350
3,99137583;0,51962350
3,99387983;0,51962350
3,99638383;0,51962350
3,99888783;0,51962350
4,00139183;0,51962350
4,00389583;0,51962350
4,00639983;0,51962350
4,00890383;0,51962350
4,01140783;0,51962350
4,01391183;0,51962350
4,01641583;0,50104580
4,01891983;0,51962350
4,02142383;0,51962350
4,02392783;0,51962350
4,02643183;0,51962350
4,02893583;0,51962350
4,03143983;0,53813980
4,03394383;0,53813980
4,03644783;0,53813980
4,03895183;0,51962350
4,04145583;0,53813980
4,04395983;0,51962350
4,04646383;0,51962350
4,04896783;0,51962350
4,05147183;0,53813980
4,05397583;0,51962350
4,05647983;0,53813980
4,05898383;0,53813980
4,06148783;0,51962350
4,06399183;0,53813980
4,06649583;0,53813980
4,06899983;0,53813980
4,07150383;0,53813980
4,07400783;0,51962350
4,07651183;0,51962350
4,07901583;0,53813980
4,08151983;0,53813980
4,08402383;0,53813980
4,08652783;0,53813980
4,08903183;0,53813980
4,09153583;0,53813980
4,09403983;0,53813980
4,09654383;0,53813980
4,09904783;0,53813980
4,10155183;0,53813980
4,10405583;0,53813980
4,10655983;0,53813980
4,10906383;0,51962350
4,11156783;0,51962350
4,11407183;0,53813980
4,11657583;0,53813980
4,11907983;0,53813980
4,12158383;0,53813980
4,12408783;0,53813980
4,12659183;0,53813980
4,12909583;0,53813980
4,13159983;0,51962350
4,13410383;0,53813980
4,13660783;0,51962350
4,13911183;0,53813980
4,14161583;0,51962350
4,14411983;0,51962350
4,14662383;0,53813980
4,14912783;0,53813980
4,15163183;0,53813980
4,15413583;0,53813980
4,15663982;0,55671750
4,15914382;0,53813980
4,16164782;0,51962350
4,16415182;0,51962350
4,16665582;0,51962350
4,16915982;0,51962350
4,17166382;0,51962350
4,17416782;0,51962350
4,17667182;0,51962350
4,17917582;0,51962350
4,18167982;0,51962350
4,18418382;0,51962350
4,18668782;0,53813980
4,18919182;0,53813980
4,19169582;0,51962350
4,19419982;0,53813980
4,19670382;0,53813980
4,19920782;0,53813980
4,20171182;0,51962350
4,20421582;0,53813980
4,20671982;0,51962350
4,20922382;0,51962350
4,21172782;0,51962350
4,21423182;0,51962350
4,21673582;0,53813980
4,21923982;0,51962350
4,22174382;0,51962350
4,22424782;0,51962350
4,22675182;0,53813980
4,22925582;0,51962350
4,23175982;0,51962350
4,23426382;0,51962350
4,23676782;0,51962350
4,23927182;0,51962350
4,24177582;0,51962350
4,24427982;0,51962350
4,24678382;0,51962350
4,24928782;0,51962350
4,25179182;0,51962350
4,25429582;0,51962350
4,25679982;0,51962350
4,25930382;0,51962350
4,26180782;0,51962350
4,26431182;0,51962350
4,26681582;0,51962350
4,26931982;0,51962350
4,27182382;0,51962350
4,27432782;0,51962350
4,27683182;0,51962350
4,27933582;0,51962350
4,28183982;0,53813980
4,28434382;0,51962350
4,28684782;0,51962350
4,28935182;0,51962350
4,29185582;0,51962350
4,29435982;0,50104580
4,29686382;0,51962350
4,29936782;0,53813980
4,30187182;0,53813980
4,30437582;0,50104580
4,30687982;0,51962350
4,30938382;0,51962350
4,31188782;0,51962350
4,31439182;0,51962350
4,31689582;0,51962350
4,31939982;0,53813980
4,32190382;0,51962350
4,32440782;0,51962350
4,32691182;0,51962350
4,32941582;0,51962350
4,33191982;0,51962350
4,33442382;0,51962350
4,33692782;0,51962350
4,33943182;0,51962350
4,34193582;0,51962350
4,34443982;0,51962350
4,34694382;0,51962350
4,34944782;0,51962350
4,35195182;0,51962350
4,35445582;0,51962350
4,35695982;0,51962350
4,35946382;0,51962350
4,36196782;0,51962350
4,36447182;0,51962350
4,36697582;0,51962350
4,36947982;0,51962350
4,37198382;0,50104580
4,37448782;0,51962350
4,37699182;0,51962350
4,37949582;0,51962350
4,38199982;0,51962350
4,38450382;0,51962350
4,38700782;0,53813980
4,38951182;0,51962350
4,39201582;0,51962350
4,39451981;0,51962350
4,39702381;0,53813980
4,39952781;0,51962350
4,40203181;0,51962350
4,40453581;0,51962350
4,40703981;0,51962350
4,40954381;0,51962350
4,41204781;0,51962350
4,41455181;0,51962350
4,41705581;0,51962350
4,41955981;0,51962350
4,42206381;0,51962350
4,42456781;0,51962350
4,42707181;0,51962350
4,42957581;0,51962350
4,43207981;0,51962350
4,43458381;0,51962350
4,43708781;0,51962350
4,43959181;0,51962350
4,44209581;0,51962350
4,44459981;0,51962350
4,44710381;0,51962350
4,44960781;0,51962350
4,45211181;0,51962350
4,45461581;0,51962350
4,45711981;0,51962350
4,45962381;0,51962350
4,46212781;0,51962350
4,46463181;0,51962350
4,46713581;0,51962350
4,46963981;0,51962350
4,47214381;0,51962350
4,47464781;0,51962350
4,47715181;0,51962350
4,47965581;0,50104580
4,48215981;0,51962350
4,48466381;0,51962350
4,48716781;0,51962350
4,48967181;0,51962350
4,49217581;0,51962350
4,49467981;0,51962350
4,49718381;0,51962350
4,49968781;0,51962350
4,50219181;0,51962350
4,50469581;0,51962350
4,50719981;0,51962350
4,50970381;0,51962350
4,51220781;0,51962350
4,51471181;0,51962350
4,51721581;0,51962350
4,51971981;0,51962350
4,52222381;0,51962350
4,52472781;0,51962350
4,52723181;0,51962350
4,52973581;0,51962350
4,53223981;0,53813980
4,53474381;0,51962350
4,53724781;0,51962350
4,53975181;0,51962350
4,54225581;0,53813980
4,54475981;0,53813980
4,54726381;0,51962350
4,54976781;0,51962350
4,55227181;0,51962350
4,55477581;0,53813980
4,55727981;0,50104580
4,55978381;0,53813980
4,56228781;0,51962350
4,56479181;0,53813980
4,56729581;0,51962350
4,56979981;0,51962350
4,57230381;0,51962350
4,57480781;0,51962350
4,57731181;0,51962350
4,57981581;0,51962350
4,58231981;0,51962350
4,58482381;0,51962350
4,58732781;0,51962350
4,58983181;0,51962350
4,59233581;0,51962350
4,59483981;0,51962350
4,59734381;0,51962350
4,59984781;0,51962350
4,60235181;0,51962350
4,60485581;0,51962350
4,60735981;0,51962350
4,60986381;0,51962350
4,61236781;0,51962350
4,61487181;0,51962350
4,61737581;0,51962350
4,61987981;0,51962350
4,62238381;0,51962350
4,62488781;0,51962350
4,62739181;0,51962350
4,62989581;0,51962350
4,63239980;0,51962350
4,63490380;0,51962350
4,63740780;0,51962350
4,63991180;0,51962350
4,64241580;0,51962350
4,64491980;0,51962350
4,64742380;0,51962350
4,64992780;0,50104580
4,65243180;0,53813980
4,65493580;0,51962350
4,65743980;0,53813980
4,65994380;0,51962350
4,66244780;0,51962350
4,66495180;0,51962350
4,66745580;0,51962350
4,66995980;0,51962350
4,67246380;0,51962350
4,67496780;0,53813980
4,67747180;0,51962350
4,67997580;0,51962350
4,68247980;0,51962350
4,68498380;0,51962350
4,68748780;0,51962350
4,68999180;0,51962350
4,69249580;0,51962350
4,69499980;0,51962350
4,69750380;0,51962350
4,70000780;0,51962350
4,70251180;0,51962350
4,70501580;0,51962350
4,70751980;0,51962350
4,71002380;0,51962350
4,71252780;0,51962350
4,71503180;0,51962350
4,71753580;0,51962350
4,72003980;0,51962350
4,72254380;0,51962350
4,72504780;0,51962350
4,72755180;0,50104580
4,73005580;0,51962350
4,73255980;0,51962350
4,73506380;0,51962350
4,73756780;0,51962350
4,74007180;0,51962350
4,74257580;0,51962350
4,74507980;0,51962350
4,74758380;0,51962350
4,75008780;0,51962350
4,75259180;0,53813980
4,75509580;0,51962350
4,75759980;0,51962350
4,76010380;0,51962350
4,76260780;0,51962350
4,76511180;0,51962350
4,76761580;0,53813980
4,77011980;0,51962350
4,77262380;0,51962350
4,77512780;0,51962350
4,77763180;0,51962350
4,78013580;0,51962350
4,78263980;0,51962350
4,78514380;0,51962350
4,78764780;0,51962350
4,79015180;0,51962350
4,79265580;0,51962350
4,79515980;0,51962350
4,79766380;0,51962350
4,80016780;0,51962350
4,80267180;0,51962350
4,80517580;0,51962350
4,80767980;0,51962350
4,81018380;0,51962350
4,81268780;0,51962350
4,81519180;0,51962350
4,81769580;0,51962350
4,82019980;0,51962350
4,82270380;0,51962350
4,82520780;0,51962350
4,82771180;0,51962350
4,83021580;0,53813980
4,83271980;0,51962350
4,83522380;0,50104580
4,83772780;0,51962350
4,84023180;0,51962350
4,84273580;0,51962350
4,84523980;0,53813980
4,84774380;0,51962350
4,85024780;0,51962350
4,85275180;0,51962350
4,85525580;0,51962350
4,85775980;0,51962350
4,86026380;0,51962350
4,86276780;0,51962350
4,86527180;0,51962350
4,86777579;0,51962350
4,87027979;0,51962350
4,87278379;0,51962350
4,87528779;0,51962350
4,87779179;0,51962350
4,88029579;0,51962350
4,88279979;0,51962350
4,88530379;0,51962350
4,88780779;0,51962350
4,89031179;0,51962350
4,89281579;0,51962350
4,89531979;0,51962350
4,89782379;0,53813980
4,90032779;0,51962350
4,90283179;0,51962350
4,90533579;0,51962350
4,90783979;0,51962350
4,91034379;0,51962350
4,91284779;0,50104580
4,91535179;0,53813980
4,91785579;0,51962350
4,92035979;0,53813980
4,92286379;0,51962350
4,92536779;0,51962350
4,92787179;0,50104580
4,93037579;0,51962350
4,93287979;0,51962350
4,93538379;0,51962350
4,93788779;0,51962350
4,94039179;0,51962350
4,94289579;0,51962350
4,94539979;0,51962350
4,94790379;0,51962350
4,95040779;0,51962350
4,95291179;0,51962350
4,95541579;0,51962350
4,95791979;0,51962350
4,96042379;0,51962350
4,96292779;0,51962350
4,96543179;0,51962350
4,96793579;0,51962350
4,97043979;0,51962350
4,97294379;0,51962350
4,97544779;0,51962350
4,97795179;0,51962350
4,98045579;0,51962350
4,98295979;0,51962350
4,98546379;0,51962350
4,98796779;0,51962350
4,99047179;0,51962350
4,99297579;0,53813980
4,99547979;0,51962350
4,99798379;0,51962350
5,00048779;0,51962350
5,00299179;0,51962350
5,00549579;0,50104580
5,00799979;0,53813980
